Black Body Radiation Experiment Wed, Mar 04, 2020 9:30 AM
Sensor Position (Degrees)	Light Intensity (Volts)
0.00000	0.53128
0.00000	0.53337
0.00000	0.53063
0.00000	0.53273
0.01035	0.53015
0.01035	0.52886
0.02070	0.53578
0.02070	0.53546
0.02070	0.53128
0.02070	0.53224
0.02070	0.53482
0.02070	0.53240
0.02070	0.52999
0.02070	0.53160
0.02070	0.53546
0.02070	0.52886
0.02070	0.53353
0.02070	0.53112
0.02070	0.53047
0.02070	0.53015
0.02070	0.53192
0.02070	0.52886
0.02070	0.53047
0.02070	0.53224
0.02070	0.53112
0.02070	0.53192
0.02070	0.53546
0.02070	0.53417
0.02070	0.53047
0.02070	0.52999
0.03104	0.52564
0.04139	0.53208
0.07244	0.52999
0.12418	0.52854
0.12418	0.53031
0.09313	0.52854
0.07244	0.52951
0.07244	0.53031
0.07244	0.52677
0.07244	0.53095
0.07244	0.52999
0.07244	0.52677
0.07244	0.52918
0.07244	0.53321
0.07244	0.53128
0.07244	0.53095
0.07244	0.53401
0.07244	0.53160
0.07244	0.52677
0.07244	0.53675
0.07244	0.53498
0.07244	0.53208
0.07244	0.52436
0.07244	0.53417
0.07244	0.53047
0.07244	0.53433
0.07244	0.53321
0.07244	0.52419
0.07244	0.53047
0.07244	0.53337
0.07244	0.53208
0.07244	0.52741
0.07244	0.53337
0.07244	0.53031
0.07244	0.52967
0.07244	0.52596
0.07244	0.52967
0.07244	0.53128
0.07244	0.52902
0.07244	0.52999
0.07244	0.53176
0.07244	0.52886
0.07244	0.52548
0.07244	0.52645
0.07244	0.53160
0.07244	0.52902
0.07244	0.52774
0.07244	0.53498
0.08279	0.53176
0.08279	0.52741
0.08279	0.52613
0.08279	0.53337
0.08279	0.53224
0.08279	0.52886
0.08279	0.53031
0.08279	0.52838
0.08279	0.53063
0.08279	0.52596
0.08279	0.52870
0.08279	0.52854
0.08279	0.53160
0.08279	0.52806
0.08279	0.52613
0.08279	0.52967
0.08279	0.52854
0.08279	0.52725
0.08279	0.52999
0.08279	0.53112
0.08279	0.52806
0.08279	0.52484
0.07244	0.53176
0.07244	0.52822
0.07244	0.52838
0.07244	0.52661
0.07244	0.53095
0.07244	0.52613
0.07244	0.52242
0.07244	0.52902
0.07244	0.53015
0.07244	0.53176
0.07244	0.52725
0.07244	0.52951
0.07244	0.53450
0.07244	0.52870
0.07244	0.52886
0.07244	0.53079
0.07244	0.53546
0.07244	0.52886
0.07244	0.53160
0.07244	0.53353
0.07244	0.53160
0.07244	0.52757
0.07244	0.53015
0.07244	0.53208
0.07244	0.52838
0.07244	0.52693
0.07244	0.53273
0.07244	0.53401
0.07244	0.53256
0.07244	0.52935
0.07244	0.52757
0.07244	0.53128
0.07244	0.53128
0.07244	0.53498
0.07244	0.53015
0.07244	0.53417
0.07244	0.53208
0.07244	0.52870
0.07244	0.53128
0.07244	0.53804
0.07244	0.53256
0.07244	0.53192
0.07244	0.52677
0.07244	0.53208
0.07244	0.53450
0.07244	0.52886
0.07244	0.53063
0.07244	0.53385
0.07244	0.53401
0.07244	0.52741
0.07244	0.53289
0.07244	0.53546
0.07244	0.53256
0.07244	0.52693
0.07244	0.53208
0.07244	0.52918
0.07244	0.53224
0.07244	0.53273
0.07244	0.53079
0.07244	0.53095
0.07244	0.52886
0.07244	0.53031
0.07244	0.53063
0.07244	0.53273
0.07244	0.52580
0.07244	0.53079
0.07244	0.53015
0.07244	0.53514
0.07244	0.52935
0.07244	0.52999
0.07244	0.53337
0.07244	0.53514
0.07244	0.52902
0.07244	0.53015
0.07244	0.53337
0.07244	0.53530
0.07244	0.52741
0.07244	0.53176
0.07244	0.53691
0.07244	0.53305
0.07244	0.52741
0.07244	0.53305
0.07244	0.53482
0.07244	0.53337
0.07244	0.52967
0.07244	0.53611
0.07244	0.53289
0.07244	0.53401
0.07244	0.53305
0.07244	0.53192
0.07244	0.53369
0.07244	0.52822
0.07244	0.53128
0.07244	0.53450
0.08279	0.53337
0.08279	0.53128
0.08279	0.52902
0.08279	0.53530
0.08279	0.53450
0.08279	0.53144
0.08279	0.53144
0.08279	0.53063
0.08279	0.52838
0.08279	0.53128
0.08279	0.53498
0.08279	0.52967
0.08279	0.53144
0.08279	0.53337
0.08279	0.53208
0.08279	0.53015
0.08279	0.53562
0.08279	0.53611
0.08279	0.52967
0.08279	0.53385
0.08279	0.53176
0.08279	0.53144
0.08279	0.52564
0.08279	0.53160
0.08279	0.53224
0.08279	0.53224
0.08279	0.53176
0.08279	0.53128
0.08279	0.53804
0.08279	0.52999
0.08279	0.53514
0.08279	0.53176
0.08279	0.53128
0.08279	0.53079
0.08279	0.53305
0.08279	0.53466
0.08279	0.53112
0.08279	0.53079
0.08279	0.53401
0.08279	0.53063
0.08279	0.53176
0.09313	0.53321
0.09313	0.53256
0.09313	0.52999
0.09313	0.53353
0.09313	0.52709
0.09313	0.52870
0.09313	0.52902
0.09313	0.53514
0.09313	0.53192
0.09313	0.52709
0.10348	0.53095
0.10348	0.53401
0.10348	0.53305
0.10348	0.52838
0.11383	0.52967
0.11383	0.52822
0.11383	0.53128
0.11383	0.53450
0.12418	0.52999
0.12418	0.52854
0.12418	0.52806
0.12418	0.53144
0.13453	0.53112
0.13453	0.53450
0.13453	0.53466
0.13453	0.53305
0.14487	0.53176
0.14487	0.53063
0.14487	0.53128
0.14487	0.53095
0.15522	0.53466
0.15522	0.53240
0.15522	0.53256
0.16557	0.53079
0.16557	0.53514
0.17592	0.53273
0.18627	0.53385
0.19662	0.53369
0.20696	0.52918
0.26905	0.53079
0.90029	0.52951
2.03859	0.53128
3.34247	0.53031
4.72913	0.53450
5.96056	0.53337
6.93329	0.53224
8.00950	0.53417
9.10641	0.53273
10.02740	0.53047
11.09327	0.53546
12.25226	0.53208
13.36987	0.53095
14.72548	0.53498
15.95692	0.53916
17.20905	0.53755
18.74058	0.55027
19.76505	0.57071
21.32763	0.57892
22.89021	0.57377
24.47348	0.56556
25.58074	0.56170
26.53277	0.55462
27.67108	0.55188
28.78868	0.54705
29.86489	0.54914
31.16877	0.54238
32.25533	0.54625
33.40398	0.54335
34.56297	0.54110
35.53571	0.54399
36.54983	0.54045
37.58465	0.53965
38.56773	0.53771
39.65429	0.53723
40.63737	0.53771
41.67219	0.53594
42.63457	0.53482
43.58660	0.53659
44.44550	0.53611
45.14918	0.53031
45.89425	0.53627
46.55653	0.53176
47.34300	0.53401
48.08807	0.53562
48.83314	0.53160
49.45403	0.53031
50.05422	0.53160
50.74755	0.52951
51.47193	0.53433
52.19630	0.53240
52.96207	0.53160
53.68644	0.52902
54.43151	0.52951
55.00066	0.52983
55.61121	0.53273
56.22175	0.52967
56.85299	0.53192
57.48423	0.52918
58.06373	0.53047
58.62253	0.52886
59.19168	0.52790
59.72979	0.52757
60.39207	0.52935
61.15784	0.52918
61.86152	0.52725
62.46171	0.53128
63.14469	0.53047
63.84837	0.53128
64.50031	0.53095
65.27642	0.52967
66.07323	0.53224
66.95283	0.53128
67.88417	0.53079
68.77411	0.53047
69.67440	0.52693
70.55400	0.53305
71.45429	0.53095
72.36494	0.53095
73.19279	0.53079
73.83438	0.53273
74.66223	0.53192
75.46939	0.53160
76.33864	0.53868
77.20789	0.53723
78.08749	0.54142
78.96708	0.54013
79.82598	0.53723
80.79872	0.53932